"Test Type","Manual"
"Method Name:","C:\INSTRON\user\template\Sp15_245Lsect001_group-01_pekk_bulk_tensiletest.mtM"
"Name:","4FtPerMin"
"Operator ID:","Jaques"
"Company:","BSU"
"Lab name:",""
"Test date:","1/17/22"
"Temperature:",""
"Humidity:",""
"Note 1:",""
"Note 2:",""
"Note 3:",""
"Geometry:","Circular"
"Specimen",0
"Specimen name:",""
"Width:",6.350000,"mm"
"Thickness:",1.524000,"mm"
"Length:",12.000000,"mm"
"Diameter:",5.000000,"um"
"Inner diameter:",0.500000,"mm"
"Outer diameter:",1.000000,"mm"
"Wall thickness:",0.500000,"mm"
"Area:",19.634954,"um*um"
"Linear density:",1.000000,"den"
"Sled weight:",9.806650,"N"
"Loading span:",0.000000,"mm"
"Support span:",1.000000,"mm"
"Span ratio:","2"
"Fixture type:","3-point"
"Comment:",""
"Included"
"Time sec","Stress Pa","Cycle Count","Total Cycle Count","Repetitions Count","Strain [Exten.] %"
0.000 12.019 0.000 0.000 0.000 0.000 
0.010 56.806 0.000 0.000 0.000 0.010 
0.020 63.827 0.000 0.000 0.000 0.021 
0.030 116.367 0.000 0.000 0.000 0.031 
0.040 156.012 0.000 0.000 0.000 0.042 
0.050 169.246 0.000 0.000 0.000 0.052 
0.060 177.923 0.000 0.000 0.000 0.062 
0.070 334.349 0.000 0.000 0.000 0.073 
0.080 312.148 0.000 0.000 0.000 0.083 
0.090 214.299 0.000 0.000 0.000 0.094 
0.100 331.302 0.000 0.000 0.000 0.104 
0.110 385.283 0.000 0.000 0.000 0.115 
0.120 411.177 0.000 0.000 0.000 0.125 
0.130 519.070 0.000 0.000 0.000 0.135 
0.140 492.690 0.000 0.000 0.000 0.146 
0.150 526.199 0.000 0.000 0.000 0.156 
0.160 505.814 0.000 0.000 0.000 0.167 
0.170 648.476 0.000 0.000 0.000 0.177 
0.180 709.019 0.000 0.000 0.000 0.187 
0.190 748.328 0.000 0.000 0.000 0.198 
0.200 749.415 0.000 0.000 0.000 0.208 
0.210 807.709 0.000 0.000 0.000 0.219 
0.220 926.913 0.000 0.000 0.000 0.229 
0.230 883.041 0.000 0.000 0.000 0.239 
0.240 911.665 0.000 0.000 0.000 0.250 
0.250 949.619 0.000 0.000 0.000 0.260 
0.260 1085.104 0.000 0.000 0.000 0.271 
0.270 997.601 0.000 0.000 0.000 0.281 
0.280 1078.257 0.000 0.000 0.000 0.291 
0.290 1089.340 0.000 0.000 0.000 0.302 
0.300 1190.015 0.000 0.000 0.000 0.312 
0.310 1146.675 0.000 0.000 0.000 0.323 
0.320 1185.935 0.000 0.000 0.000 0.333 
0.330 1167.064 0.000 0.000 0.000 0.344 
0.340 1395.020 0.000 0.000 0.000 0.354 
0.350 1281.026 0.000 0.000 0.000 0.364 
0.360 1483.912 0.000 0.000 0.000 0.375 
0.370 1342.174 0.000 0.000 0.000 0.385 
0.380 1401.534 0.000 0.000 0.000 0.396 
0.390 1529.021 0.000 0.000 0.000 0.406 
0.400 1562.133 0.000 0.000 0.000 0.416 
0.410 1611.766 0.000 0.000 0.000 0.427 
0.420 1557.269 0.000 0.000 0.000 0.437 
0.430 1630.647 0.000 0.000 0.000 0.448 
0.440 1732.088 0.000 0.000 0.000 0.458 
0.450 1768.073 0.000 0.000 0.000 0.468 
0.460 1615.672 0.000 0.000 0.000 0.479 
0.470 1755.112 0.000 0.000 0.000 0.489 
0.480 1998.682 0.000 0.000 0.000 0.500 
0.490 1981.228 0.000 0.000 0.000 0.510 
0.501 1945.553 0.000 0.000 0.000 0.521 
0.511 1884.692 0.000 0.000 0.000 0.531 
0.521 2143.679 0.000 0.000 0.000 0.541 
0.531 2079.720 0.000 0.000 0.000 0.552 
0.541 2140.406 0.000 0.000 0.000 0.562 
0.551 2178.793 0.000 0.000 0.000 0.573 
0.561 2250.219 0.000 0.000 0.000 0.583 
0.571 2167.091 0.000 0.000 0.000 0.593 
0.581 2324.300 0.000 0.000 0.000 0.604 
0.591 2197.279 0.000 0.000 0.000 0.614 
0.601 2314.166 0.000 0.000 0.000 0.625 
0.611 2256.825 0.000 0.000 0.000 0.635 
0.621 2435.290 0.000 0.000 0.000 0.645 
0.631 2408.303 0.000 0.000 0.000 0.656 
0.641 2534.739 0.000 0.000 0.000 0.666 
0.651 2537.194 0.000 0.000 0.000 0.677 
0.661 2476.026 0.000 0.000 0.000 0.687 
0.671 2621.916 0.000 0.000 0.000 0.697 
0.681 2587.425 0.000 0.000 0.000 0.708 
0.691 2680.340 0.000 0.000 0.000 0.718 
0.701 2827.180 0.000 0.000 0.000 0.729 
0.711 2673.742 0.000 0.000 0.000 0.739 
0.721 2806.953 0.000 0.000 0.000 0.750 
0.731 2864.086 0.000 0.000 0.000 0.760 
0.741 2967.501 0.000 0.000 0.000 0.770 
0.751 2906.386 0.000 0.000 0.000 0.781 
0.761 2986.996 0.000 0.000 0.000 0.791 
0.771 2981.467 0.000 0.000 0.000 0.802 
0.781 3024.709 0.000 0.000 0.000 0.812 
0.791 3144.659 0.000 0.000 0.000 0.822 
0.801 3180.569 0.000 0.000 0.000 0.833 
0.811 3110.023 0.000 0.000 0.000 0.843 
0.821 3245.095 0.000 0.000 0.000 0.854 
0.831 3172.390 0.000 0.000 0.000 0.864 
0.841 3221.738 0.000 0.000 0.000 0.874 
0.851 3382.298 0.000 0.000 0.000 0.885 
0.861 3343.861 0.000 0.000 0.000 0.895 
0.871 3384.669 0.000 0.000 0.000 0.906 
0.881 3397.620 0.000 0.000 0.000 0.916 
0.891 3477.927 0.000 0.000 0.000 0.927 
0.901 3472.743 0.000 0.000 0.000 0.937 
0.911 3521.117 0.000 0.000 0.000 0.947 
0.921 3646.767 0.000 0.000 0.000 0.958 
0.931 3575.770 0.000 0.000 0.000 0.968 
0.941 3669.186 0.000 0.000 0.000 0.979 
0.951 3755.473 0.000 0.000 0.000 0.989 
0.961 3791.157 0.000 0.000 0.000 0.999 
0.971 3811.134 0.000 0.000 0.000 1.010 
0.981 3803.566 0.000 0.000 0.000 1.020 
0.991 3892.512 0.000 0.000 0.000 1.031 
1.001 3944.949 0.000 0.000 0.000 1.041 
1.011 3973.673 0.000 0.000 0.000 1.051 
1.021 4016.436 0.000 0.000 0.000 1.062 
1.031 4030.596 0.000 0.000 0.000 1.072 
1.041 4067.696 0.000 0.000 0.000 1.083 
1.051 3968.470 0.000 0.000 0.000 1.093 
1.061 4200.999 0.000 0.000 0.000 1.104 
1.071 4137.444 0.000 0.000 0.000 1.114 
1.081 4281.247 0.000 0.000 0.000 1.124 
1.091 4125.948 0.000 0.000 0.000 1.135 
1.101 4171.184 0.000 0.000 0.000 1.145 
1.111 4382.771 0.000 0.000 0.000 1.156 
1.121 4373.103 0.000 0.000 0.000 1.166 
1.131 4383.415 0.000 0.000 0.000 1.176 
1.141 4318.233 0.000 0.000 0.000 1.187 
1.151 4495.895 0.000 0.000 0.000 1.197 
1.161 4587.954 0.000 0.000 0.000 1.208 
1.171 4518.128 0.000 0.000 0.000 1.218 
1.181 4747.633 0.000 0.000 0.000 1.228 
1.191 4656.024 0.000 0.000 0.000 1.239 
1.201 4645.821 0.000 0.000 0.000 1.249 
1.211 4735.878 0.000 0.000 0.000 1.260 
1.221 4848.382 0.000 0.000 0.000 1.270 
1.231 4808.628 0.000 0.000 0.000 1.280 
1.241 4925.026 0.000 0.000 0.000 1.291 
1.251 4932.881 0.000 0.000 0.000 1.301 
1.261 4965.471 0.000 0.000 0.000 1.312 
1.271 4963.625 0.000 0.000 0.000 1.322 
1.281 5058.061 0.000 0.000 0.000 1.333 
1.291 5138.749 0.000 0.000 0.000 1.343 
1.301 5190.221 0.000 0.000 0.000 1.353 
1.311 5248.216 0.000 0.000 0.000 1.364 
1.321 5130.849 0.000 0.000 0.000 1.374 
1.331 5199.259 0.000 0.000 0.000 1.385 
1.341 5195.774 0.000 0.000 0.000 1.395 
1.351 5318.724 0.000 0.000 0.000 1.405 
1.361 5321.700 0.000 0.000 0.000 1.416 
1.371 5289.533 0.000 0.000 0.000 1.426 
1.381 5401.932 0.000 0.000 0.000 1.437 
1.391 5393.520 0.000 0.000 0.000 1.447 
1.401 5509.605 0.000 0.000 0.000 1.457 
1.411 5505.214 0.000 0.000 0.000 1.468 
1.421 5574.989 0.000 0.000 0.000 1.478 
1.431 5581.650 0.000 0.000 0.000 1.489 
1.441 5705.620 0.000 0.000 0.000 1.499 
1.451 5830.152 0.000 0.000 0.000 1.510 
1.461 5661.178 0.000 0.000 0.000 1.520 
1.471 5748.989 0.000 0.000 0.000 1.530 
1.481 5810.169 0.000 0.000 0.000 1.541 
1.491 5941.512 0.000 0.000 0.000 1.551 
1.502 5914.005 0.000 0.000 0.000 1.562 
1.512 5923.287 0.000 0.000 0.000 1.572 
1.522 6074.756 0.000 0.000 0.000 1.582 
1.532 6002.404 0.000 0.000 0.000 1.593 
1.542 6044.116 0.000 0.000 0.000 1.603 
1.552 6082.242 0.000 0.000 0.000 1.614 
1.562 6217.255 0.000 0.000 0.000 1.624 
1.572 6253.590 0.000 0.000 0.000 1.634 
1.582 6226.339 0.000 0.000 0.000 1.645 
1.592 6289.212 0.000 0.000 0.000 1.655 
1.602 6356.471 0.000 0.000 0.000 1.666 
1.612 6284.019 0.000 0.000 0.000 1.676 
1.622 6504.653 0.000 0.000 0.000 1.686 
1.632 6448.903 0.000 0.000 0.000 1.697 
1.642 6555.245 0.000 0.000 0.000 1.707 
1.652 6465.173 0.000 0.000 0.000 1.718 
1.662 6478.577 0.000 0.000 0.000 1.728 
1.672 6606.769 0.000 0.000 0.000 1.739 
1.682 6631.910 0.000 0.000 0.000 1.749 
1.692 6597.418 0.000 0.000 0.000 1.759 
1.702 6692.155 0.000 0.000 0.000 1.770 
1.712 6702.717 0.000 0.000 0.000 1.780 
1.722 6695.752 0.000 0.000 0.000 1.791 
1.732 6863.222 0.000 0.000 0.000 1.801 
1.742 6834.829 0.000 0.000 0.000 1.811 
1.752 6864.608 0.000 0.000 0.000 1.822 
1.762 6985.457 0.000 0.000 0.000 1.832 
1.772 6859.872 0.000 0.000 0.000 1.843 
1.782 7117.476 0.000 0.000 0.000 1.853 
1.792 7001.907 0.000 0.000 0.000 1.863 
1.802 7018.420 0.000 0.000 0.000 1.874 
1.812 7034.031 0.000 0.000 0.000 1.884 
1.822 7168.497 0.000 0.000 0.000 1.895 
1.832 7156.380 0.000 0.000 0.000 1.905 
1.842 7182.785 0.000 0.000 0.000 1.916 
1.852 7223.164 0.000 0.000 0.000 1.926 
1.862 7169.897 0.000 0.000 0.000 1.936 
1.872 7353.200 0.000 0.000 0.000 1.947 
1.882 7373.426 0.000 0.000 0.000 1.957 
1.892 7406.735 0.000 0.000 0.000 1.968 
1.902 7479.191 0.000 0.000 0.000 1.978 
1.912 7372.696 0.000 0.000 0.000 1.988 
1.922 7554.857 0.000 0.000 0.000 1.999 
1.932 7701.913 0.000 0.000 0.000 2.009 
1.942 7549.160 0.000 0.000 0.000 2.020 
1.952 7655.471 0.000 0.000 0.000 2.030 
1.962 7762.186 0.000 0.000 0.000 2.040 
1.972 7806.647 0.000 0.000 0.000 2.051 
1.982 7648.172 0.000 0.000 0.000 2.061 
1.992 7899.844 0.000 0.000 0.000 2.072 
2.002 8001.486 0.000 0.000 0.000 2.082 
2.012 7955.861 0.000 0.000 0.000 2.092 
2.022 7936.442 0.000 0.000 0.000 2.103 
2.032 7943.312 0.000 0.000 0.000 2.113 
2.042 8066.772 0.000 0.000 0.000 2.124 
2.052 8030.211 0.000 0.000 0.000 2.134 
2.062 8065.902 0.000 0.000 0.000 2.145 
2.072 8196.313 0.000 0.000 0.000 2.155 
2.082 8222.130 0.000 0.000 0.000 2.165 
2.092 8290.395 0.000 0.000 0.000 2.176 
2.102 8316.728 0.000 0.000 0.000 2.186 
2.112 8314.079 0.000 0.000 0.000 2.197 
2.122 8199.944 0.000 0.000 0.000 2.207 
2.132 8362.136 0.000 0.000 0.000 2.217 
2.142 8423.875 0.000 0.000 0.000 2.228 
2.152 8480.690 0.000 0.000 0.000 2.238 
2.162 8383.520 0.000 0.000 0.000 2.249 
2.172 8527.334 0.000 0.000 0.000 2.259 
2.182 8677.603 0.000 0.000 0.000 2.269 
2.192 8684.662 0.000 0.000 0.000 2.280 
2.202 8662.961 0.000 0.000 0.000 2.290 
2.212 8711.301 0.000 0.000 0.000 2.301 
2.222 8883.684 0.000 0.000 0.000 2.311 
2.232 8806.009 0.000 0.000 0.000 2.322 
2.242 8869.990 0.000 0.000 0.000 2.332 
2.252 8929.764 0.000 0.000 0.000 2.342 
2.262 8853.358 0.000 0.000 0.000 2.353 
2.272 8951.063 0.000 0.000 0.000 2.363 
2.282 8927.160 0.000 0.000 0.000 2.374 
2.292 9011.369 0.000 0.000 0.000 2.384 
2.302 9011.522 0.000 0.000 0.000 2.394 
2.312 9118.216 0.000 0.000 0.000 2.405 
2.322 9141.674 0.000 0.000 0.000 2.415 
2.332 9080.302 0.000 0.000 0.000 2.426 
2.342 9224.645 0.000 0.000 0.000 2.436 
2.352 9189.451 0.000 0.000 0.000 2.446 
2.362 9306.769 0.000 0.000 0.000 2.457 
2.372 9330.764 0.000 0.000 0.000 2.467 
2.382 9375.611 0.000 0.000 0.000 2.478 
2.392 9347.704 0.000 0.000 0.000 2.488 
2.402 9498.901 0.000 0.000 0.000 2.498 
2.412 9508.856 0.000 0.000 0.000 2.509 
2.422 9585.288 0.000 0.000 0.000 2.519 
2.432 9510.036 0.000 0.000 0.000 2.530 
2.442 9648.016 0.000 0.000 0.000 2.540 
2.452 9529.139 0.000 0.000 0.000 2.551 
2.462 9746.592 0.000 0.000 0.000 2.561 
2.472 9720.651 0.000 0.000 0.000 2.571 
2.482 9777.907 0.000 0.000 0.000 2.582 
2.492 9852.087 0.000 0.000 0.000 2.592 
2.503 9936.610 0.000 0.000 0.000 2.603 
2.513 9918.836 0.000 0.000 0.000 2.613 
2.523 10012.377 0.000 0.000 0.000 2.623 
2.533 10089.459 0.000 0.000 0.000 2.634 
2.543 10041.657 0.000 0.000 0.000 2.644 
2.553 10125.585 0.000 0.000 0.000 2.655 
2.563 10091.542 0.000 0.000 0.000 2.665 
2.573 10069.608 0.000 0.000 0.000 2.675 
2.583 10240.280 0.000 0.000 0.000 2.686 
2.593 10182.545 0.000 0.000 0.000 2.696 
2.603 10266.304 0.000 0.000 0.000 2.707 
2.613 10322.528 0.000 0.000 0.000 2.717 
2.623 10373.091 0.000 0.000 0.000 2.728 
2.633 10496.996 0.000 0.000 0.000 2.738 
2.643 10464.245 0.000 0.000 0.000 2.748 
2.653 10445.311 0.000 0.000 0.000 2.759 
2.663 10497.022 0.000 0.000 0.000 2.769 
2.673 10511.342 0.000 0.000 0.000 2.780 
2.683 10508.988 0.000 0.000 0.000 2.790 
2.693 10643.709 0.000 0.000 0.000 2.800 
2.703 10578.493 0.000 0.000 0.000 2.811 
2.713 10783.051 0.000 0.000 0.000 2.821 
2.723 10669.873 0.000 0.000 0.000 2.832 
2.733 10723.740 0.000 0.000 0.000 2.842 
2.743 10820.824 0.000 0.000 0.000 2.852 
2.753 10918.591 0.000 0.000 0.000 2.863 
2.763 10943.618 0.000 0.000 0.000 2.873 
2.773 10867.519 0.000 0.000 0.000 2.884 
2.783 10994.025 0.000 0.000 0.000 2.894 
2.793 11066.660 0.000 0.000 0.000 2.905 
2.803 11081.608 0.000 0.000 0.000 2.915 
2.813 11228.057 0.000 0.000 0.000 2.925 
2.823 11057.882 0.000 0.000 0.000 2.936 
2.833 11179.004 0.000 0.000 0.000 2.946 
2.843 11192.004 0.000 0.000 0.000 2.957 
2.853 11199.722 0.000 0.000 0.000 2.967 
2.863 11233.169 0.000 0.000 0.000 2.977 
2.873 11444.074 0.000 0.000 0.000 2.988 
2.883 11317.575 0.000 0.000 0.000 2.998 
2.893 11223.987 0.000 0.000 0.000 3.009 
2.903 11426.438 0.000 0.000 0.000 3.019 
2.913 11520.074 0.000 0.000 0.000 3.029 
2.923 11462.031 0.000 0.000 0.000 3.040 
2.933 11506.080 0.000 0.000 0.000 3.050 
2.943 11571.301 0.000 0.000 0.000 3.061 
2.953 11666.467 0.000 0.000 0.000 3.071 
2.963 11825.385 0.000 0.000 0.000 3.081 
2.973 11654.461 0.000 0.000 0.000 3.092 
2.983 11830.237 0.000 0.000 0.000 3.102 
2.993 11881.700 0.000 0.000 0.000 3.113 
3.003 11809.140 0.000 0.000 0.000 3.123 
3.013 11835.414 0.000 0.000 0.000 3.134 
3.023 11604.248 0.000 0.000 0.000 3.144 
3.033 11712.759 0.000 0.000 0.000 3.154 
3.043 11797.701 0.000 0.000 0.000 3.165 
3.053 11741.470 0.000 0.000 0.000 3.175 
3.063 11746.906 0.000 0.000 0.000 3.186 
3.073 11800.521 0.000 0.000 0.000 3.196 
3.083 11562.740 0.000 0.000 0.000 3.206 
3.093 11799.988 0.000 0.000 0.000 3.217 
3.103 11797.974 0.000 0.000 0.000 3.227 
3.113 11695.560 0.000 0.000 0.000 3.238 
3.123 11699.424 0.000 0.000 0.000 3.248 
3.133 11751.308 0.000 0.000 0.000 3.258 
3.143 11551.869 0.000 0.000 0.000 3.269 
3.153 11614.198 0.000 0.000 0.000 3.279 
3.163 11634.817 0.000 0.000 0.000 3.290 
3.173 11737.991 0.000 0.000 0.000 3.300 
3.183 11676.949 0.000 0.000 0.000 3.311 
3.193 11676.089 0.000 0.000 0.000 3.321 
3.203 11508.434 0.000 0.000 0.000 3.331 
3.213 11570.925 0.000 0.000 0.000 3.342 
3.223 11403.913 0.000 0.000 0.000 3.352 
3.233 11521.210 0.000 0.000 0.000 3.363 
3.243 11551.887 0.000 0.000 0.000 3.373 
3.253 11485.892 0.000 0.000 0.000 3.383 
3.263 11696.501 0.000 0.000 0.000 3.394 
3.273 11424.469 0.000 0.000 0.000 3.404 
3.283 11457.597 0.000 0.000 0.000 3.415 
3.293 11565.917 0.000 0.000 0.000 3.425 
3.303 11426.238 0.000 0.000 0.000 3.435 
3.313 11503.985 0.000 0.000 0.000 3.446 
3.323 11458.681 0.000 0.000 0.000 3.456 
3.333 11445.019 0.000 0.000 0.000 3.467 
3.343 11445.136 0.000 0.000 0.000 3.477 
3.353 11495.981 0.000 0.000 0.000 3.487 
3.363 11594.617 0.000 0.000 0.000 3.498 
3.373 11546.986 0.000 0.000 0.000 3.508 
3.383 11604.732 0.000 0.000 0.000 3.519 
3.393 11465.055 0.000 0.000 0.000 3.529 
3.403 11559.599 0.000 0.000 0.000 3.540 
3.413 11575.298 0.000 0.000 0.000 3.550 
3.423 11476.623 0.000 0.000 0.000 3.560 
3.433 11559.258 0.000 0.000 0.000 3.571 
3.443 11554.743 0.000 0.000 0.000 3.581 
3.453 11479.889 0.000 0.000 0.000 3.592 
3.463 11520.522 0.000 0.000 0.000 3.602 
3.473 11502.375 0.000 0.000 0.000 3.612 
3.483 11541.165 0.000 0.000 0.000 3.623 
3.493 11464.436 0.000 0.000 0.000 3.633 
3.504 11529.631 0.000 0.000 0.000 3.644 
3.514 11483.461 0.000 0.000 0.000 3.654 
3.524 11570.954 0.000 0.000 0.000 3.664 
3.534 11387.566 0.000 0.000 0.000 3.675 
3.544 11546.448 0.000 0.000 0.000 3.685 
3.554 11558.875 0.000 0.000 0.000 3.696 
3.564 11504.668 0.000 0.000 0.000 3.706 
3.574 11499.769 0.000 0.000 0.000 3.717 
3.584 11565.390 0.000 0.000 0.000 3.727 
3.594 11569.677 0.000 0.000 0.000 3.737 
3.604 11559.456 0.000 0.000 0.000 3.748 
3.614 11473.292 0.000 0.000 0.000 3.758 
3.624 11518.612 0.000 0.000 0.000 3.769 
3.634 11410.575 0.000 0.000 0.000 3.779 
3.644 11444.561 0.000 0.000 0.000 3.789 
3.654 11540.682 0.000 0.000 0.000 3.800 
3.664 11573.796 0.000 0.000 0.000 3.810 
3.674 11613.001 0.000 0.000 0.000 3.821 
3.684 11498.888 0.000 0.000 0.000 3.831 
3.694 11526.603 0.000 0.000 0.000 3.841 
3.704 11519.560 0.000 0.000 0.000 3.852 
3.714 11583.233 0.000 0.000 0.000 3.862 
3.724 11557.000 0.000 0.000 0.000 3.873 
3.734 11510.727 0.000 0.000 0.000 3.883 
3.744 11509.487 0.000 0.000 0.000 3.893 
3.754 11541.991 0.000 0.000 0.000 3.904 
3.764 11566.656 0.000 0.000 0.000 3.914 
3.774 11577.204 0.000 0.000 0.000 3.925 
3.784 11575.983 0.000 0.000 0.000 3.935 
3.794 11585.782 0.000 0.000 0.000 3.946 
3.804 11574.633 0.000 0.000 0.000 3.956 
3.814 11651.479 0.000 0.000 0.000 3.966 
3.824 11516.871 0.000 0.000 0.000 3.977 
3.834 11565.964 0.000 0.000 0.000 3.987 
3.844 11520.180 0.000 0.000 0.000 3.998 
3.854 11511.637 0.000 0.000 0.000 4.008 
3.864 11381.475 0.000 0.000 0.000 4.018 
3.874 11640.555 0.000 0.000 0.000 4.029 
3.884 11583.110 0.000 0.000 0.000 4.039 
3.894 11607.847 0.000 0.000 0.000 4.050 
3.904 11709.212 0.000 0.000 0.000 4.060 
3.914 11552.272 0.000 0.000 0.000 4.070 
3.924 11505.152 0.000 0.000 0.000 4.081 
3.934 11521.428 0.000 0.000 0.000 4.091 
3.944 11489.056 0.000 0.000 0.000 4.102 
3.954 11485.600 0.000 0.000 0.000 4.112 
3.964 11614.634 0.000 0.000 0.000 4.123 
3.974 11619.572 0.000 0.000 0.000 4.133 
3.984 11533.608 0.000 0.000 0.000 4.143 
3.994 11565.503 0.000 0.000 0.000 4.154 
4.004 11572.654 0.000 0.000 0.000 4.164 
4.014 11533.934 0.000 0.000 0.000 4.175 
4.024 11542.500 0.000 0.000 0.000 4.185 
4.034 11498.531 0.000 0.000 0.000 4.195 
4.044 11669.630 0.000 0.000 0.000 4.206 
4.054 11636.397 0.000 0.000 0.000 4.216 
4.064 11559.417 0.000 0.000 0.000 4.227 
4.074 11656.629 0.000 0.000 0.000 4.237 
4.084 11693.169 0.000 0.000 0.000 4.247 
4.094 11655.277 0.000 0.000 0.000 4.258 
4.104 11674.619 0.000 0.000 0.000 4.268 
4.114 11522.703 0.000 0.000 0.000 4.279 
4.124 11591.229 0.000 0.000 0.000 4.289 
4.134 11609.053 0.000 0.000 0.000 4.299 
4.144 11563.440 0.000 0.000 0.000 4.310 
4.154 11539.026 0.000 0.000 0.000 4.320 
4.164 11540.815 0.000 0.000 0.000 4.331 
4.174 11600.793 0.000 0.000 0.000 4.341 
4.184 11616.517 0.000 0.000 0.000 4.352 
4.194 11474.117 0.000 0.000 0.000 4.362 
4.204 11566.781 0.000 0.000 0.000 4.372 
4.214 11672.558 0.000 0.000 0.000 4.383 
4.224 11638.620 0.000 0.000 0.000 4.393 
4.234 11553.515 0.000 0.000 0.000 4.404 
4.244 11620.905 0.000 0.000 0.000 4.414 
4.254 11438.050 0.000 0.000 0.000 4.424 
4.264 11523.818 0.000 0.000 0.000 4.435 
4.274 11659.695 0.000 0.000 0.000 4.445 
4.284 11588.890 0.000 0.000 0.000 4.456 
4.294 11694.587 0.000 0.000 0.000 4.466 
4.304 11604.460 0.000 0.000 0.000 4.476 
4.314 11495.202 0.000 0.000 0.000 4.487 
4.324 11589.007 0.000 0.000 0.000 4.497 
4.334 11578.044 0.000 0.000 0.000 4.508 
4.344 11610.031 0.000 0.000 0.000 4.518 
4.354 11649.495 0.000 0.000 0.000 4.529 
4.364 11623.717 0.000 0.000 0.000 4.539 
4.374 11705.268 0.000 0.000 0.000 4.549 
4.384 11513.390 0.000 0.000 0.000 4.560 
4.394 11598.652 0.000 0.000 0.000 4.570 
4.404 11626.417 0.000 0.000 0.000 4.581 
4.414 11675.935 0.000 0.000 0.000 4.591 
4.424 11601.638 0.000 0.000 0.000 4.601 
4.434 11462.021 0.000 0.000 0.000 4.612 
4.444 11574.037 0.000 0.000 0.000 4.622 
4.454 11638.349 0.000 0.000 0.000 4.633 
4.464 11507.862 0.000 0.000 0.000 4.643 
4.474 11657.857 0.000 0.000 0.000 4.653 
4.484 11595.958 0.000 0.000 0.000 4.664 
4.494 11689.413 0.000 0.000 0.000 4.674 
4.505 11599.530 0.000 0.000 0.000 4.685 
4.515 11599.136 0.000 0.000 0.000 4.695 
4.525 11683.544 0.000 0.000 0.000 4.706 
4.535 11499.826 0.000 0.000 0.000 4.716 
4.545 11587.548 0.000 0.000 0.000 4.726 
4.555 11608.216 0.000 0.000 0.000 4.737 
4.565 11578.310 0.000 0.000 0.000 4.747 
4.575 11594.746 0.000 0.000 0.000 4.758 
4.585 11477.196 0.000 0.000 0.000 4.768 
4.595 11650.460 0.000 0.000 0.000 4.778 
4.605 11537.775 0.000 0.000 0.000 4.789 
4.615 11700.991 0.000 0.000 0.000 4.799 
4.625 11567.909 0.000 0.000 0.000 4.810 
4.635 11583.731 0.000 0.000 0.000 4.820 
4.645 11606.954 0.000 0.000 0.000 4.830 
4.655 11676.039 0.000 0.000 0.000 4.841 
4.665 11700.589 0.000 0.000 0.000 4.851 
4.675 11676.627 0.000 0.000 0.000 4.862 
4.685 11718.830 0.000 0.000 0.000 4.872 
4.695 11622.263 0.000 0.000 0.000 4.882 
4.705 11605.346 0.000 0.000 0.000 4.893 
4.715 11589.030 0.000 0.000 0.000 4.903 
4.725 11676.276 0.000 0.000 0.000 4.914 
