"Test Type","Manual"
"Method Name:","C:\INSTRON\user\template\Sp15_245Lsect001_group-01_pekk_composite_tensiletest.mtM"
"Name:","4FtPerMin"
"Operator ID:","Jaques"
"Company:","BSU"
"Lab name:",""
"Test date:","1/17/22"
"Temperature:",""
"Humidity:",""
"Note 1:",""
"Note 2:",""
"Note 3:",""
"Geometry:","Circular"
"Specimen",0
"Specimen name:",""
"Width:",6.350000,"mm"
"Thickness:",1.524000,"mm"
"Length:",12.000000,"mm"
"Diameter:",5.000000,"um"
"Inner diameter:",0.500000,"mm"
"Outer diameter:",1.000000,"mm"
"Wall thickness:",0.500000,"mm"
"Area:",19.634954,"um*um"
"Linear density:",1.000000,"den"
"Sled weight:",9.806650,"N"
"Loading span:",0.000000,"mm"
"Support span:",1.000000,"mm"
"Span ratio:","2"
"Fixture type:","3-point"
"Comment:",""
"Included"
"Time sec","Stress Pa","Cycle Count","Total Cycle Count","Repetitions Count","Strain [Exten.] %"
0.000 -1733.613 0.000 0.000 0.000 0.000 
0.010 1070.169 0.000 0.000 0.000 0.010 
0.020 767.994 0.000 0.000 0.000 0.021 
0.030 14.308 0.000 0.000 0.000 0.031 
0.040 1787.987 0.000 0.000 0.000 0.042 
0.050 2179.995 0.000 0.000 0.000 0.052 
0.060 2925.078 0.000 0.000 0.000 0.062 
0.070 1635.347 0.000 0.000 0.000 0.073 
0.080 3248.370 0.000 0.000 0.000 0.083 
0.090 4520.027 0.000 0.000 0.000 0.094 
0.100 5742.965 0.000 0.000 0.000 0.104 
0.110 3941.887 0.000 0.000 0.000 0.115 
0.120 4976.934 0.000 0.000 0.000 0.125 
0.130 5811.602 0.000 0.000 0.000 0.135 
0.140 6661.409 0.000 0.000 0.000 0.146 
0.150 6395.118 0.000 0.000 0.000 0.156 
0.160 7470.492 0.000 0.000 0.000 0.167 
0.170 7432.647 0.000 0.000 0.000 0.177 
0.180 9329.956 0.000 0.000 0.000 0.187 
0.190 7833.268 0.000 0.000 0.000 0.198 
0.200 8349.581 0.000 0.000 0.000 0.208 
0.210 9988.519 0.000 0.000 0.000 0.219 
0.220 10995.596 0.000 0.000 0.000 0.229 
0.230 11763.268 0.000 0.000 0.000 0.239 
0.240 11745.479 0.000 0.000 0.000 0.250 
0.250 11274.287 0.000 0.000 0.000 0.260 
0.260 12399.645 0.000 0.000 0.000 0.271 
0.270 12603.308 0.000 0.000 0.000 0.281 
0.280 13479.461 0.000 0.000 0.000 0.291 
0.290 13440.939 0.000 0.000 0.000 0.302 
0.300 13298.674 0.000 0.000 0.000 0.312 
0.310 15880.993 0.000 0.000 0.000 0.323 
0.320 15751.736 0.000 0.000 0.000 0.333 
0.330 16439.700 0.000 0.000 0.000 0.344 
0.340 16810.816 0.000 0.000 0.000 0.354 
0.350 17408.778 0.000 0.000 0.000 0.364 
0.360 18175.479 0.000 0.000 0.000 0.375 
0.370 19360.151 0.000 0.000 0.000 0.385 
0.380 17324.861 0.000 0.000 0.000 0.396 
0.390 18311.941 0.000 0.000 0.000 0.406 
0.400 19336.378 0.000 0.000 0.000 0.416 
0.410 20194.057 0.000 0.000 0.000 0.427 
0.420 20617.856 0.000 0.000 0.000 0.437 
0.430 20457.795 0.000 0.000 0.000 0.448 
0.440 21386.165 0.000 0.000 0.000 0.458 
0.450 21209.824 0.000 0.000 0.000 0.468 
0.460 20594.921 0.000 0.000 0.000 0.479 
0.470 22241.364 0.000 0.000 0.000 0.489 
0.480 22408.045 0.000 0.000 0.000 0.500 
0.490 24742.102 0.000 0.000 0.000 0.510 
0.501 23483.438 0.000 0.000 0.000 0.521 
0.511 25123.929 0.000 0.000 0.000 0.531 
0.521 25400.271 0.000 0.000 0.000 0.541 
0.531 25587.166 0.000 0.000 0.000 0.552 
0.541 26225.982 0.000 0.000 0.000 0.562 
0.551 26635.234 0.000 0.000 0.000 0.573 
0.561 25490.224 0.000 0.000 0.000 0.583 
0.571 28378.194 0.000 0.000 0.000 0.593 
0.581 27383.536 0.000 0.000 0.000 0.604 
0.591 27076.746 0.000 0.000 0.000 0.614 
0.601 28311.445 0.000 0.000 0.000 0.625 
0.611 29128.792 0.000 0.000 0.000 0.635 
0.621 30834.900 0.000 0.000 0.000 0.645 
0.631 29695.054 0.000 0.000 0.000 0.656 
0.641 32603.925 0.000 0.000 0.000 0.666 
0.651 32231.844 0.000 0.000 0.000 0.677 
0.661 32127.213 0.000 0.000 0.000 0.687 
0.671 31783.293 0.000 0.000 0.000 0.697 
0.681 33406.078 0.000 0.000 0.000 0.708 
0.691 33498.472 0.000 0.000 0.000 0.718 
0.701 33543.930 0.000 0.000 0.000 0.729 
0.711 33866.070 0.000 0.000 0.000 0.739 
0.721 35394.408 0.000 0.000 0.000 0.750 
0.731 34785.427 0.000 0.000 0.000 0.760 
0.741 35720.675 0.000 0.000 0.000 0.770 
0.751 36821.013 0.000 0.000 0.000 0.781 
0.761 35267.423 0.000 0.000 0.000 0.791 
0.771 37049.587 0.000 0.000 0.000 0.802 
0.781 36865.219 0.000 0.000 0.000 0.812 
0.791 39783.153 0.000 0.000 0.000 0.822 
0.801 39718.368 0.000 0.000 0.000 0.833 
0.811 40895.256 0.000 0.000 0.000 0.843 
0.821 39572.217 0.000 0.000 0.000 0.854 
0.831 40834.281 0.000 0.000 0.000 0.864 
0.841 40488.543 0.000 0.000 0.000 0.874 
0.851 41277.643 0.000 0.000 0.000 0.885 
0.861 42703.440 0.000 0.000 0.000 0.895 
0.871 43048.874 0.000 0.000 0.000 0.906 
0.881 42849.290 0.000 0.000 0.000 0.916 
0.891 43102.997 0.000 0.000 0.000 0.927 
0.901 43295.859 0.000 0.000 0.000 0.937 
0.911 43854.964 0.000 0.000 0.000 0.947 
0.921 45069.819 0.000 0.000 0.000 0.958 
0.931 43768.230 0.000 0.000 0.000 0.968 
0.941 44645.728 0.000 0.000 0.000 0.979 
0.951 46696.350 0.000 0.000 0.000 0.989 
0.961 46597.072 0.000 0.000 0.000 0.999 
0.971 47732.832 0.000 0.000 0.000 1.010 
0.981 48964.281 0.000 0.000 0.000 1.020 
0.991 48827.362 0.000 0.000 0.000 1.031 
1.001 48506.630 0.000 0.000 0.000 1.041 
1.011 49440.177 0.000 0.000 0.000 1.051 
1.021 50389.412 0.000 0.000 0.000 1.062 
1.031 49904.169 0.000 0.000 0.000 1.072 
1.041 50446.957 0.000 0.000 0.000 1.083 
1.051 51335.660 0.000 0.000 0.000 1.093 
1.061 51230.020 0.000 0.000 0.000 1.104 
1.071 52329.447 0.000 0.000 0.000 1.114 
1.081 53198.250 0.000 0.000 0.000 1.124 
1.091 52982.972 0.000 0.000 0.000 1.135 
1.101 53352.779 0.000 0.000 0.000 1.145 
1.111 53834.688 0.000 0.000 0.000 1.156 
1.121 54461.584 0.000 0.000 0.000 1.166 
1.131 54174.749 0.000 0.000 0.000 1.176 
1.141 55740.891 0.000 0.000 0.000 1.187 
1.151 55675.790 0.000 0.000 0.000 1.197 
1.161 56246.612 0.000 0.000 0.000 1.208 
1.171 57301.022 0.000 0.000 0.000 1.218 
1.181 58342.192 0.000 0.000 0.000 1.228 
1.191 57356.550 0.000 0.000 0.000 1.239 
1.201 57789.739 0.000 0.000 0.000 1.249 
1.211 59246.861 0.000 0.000 0.000 1.260 
1.221 60298.853 0.000 0.000 0.000 1.270 
1.231 57984.604 0.000 0.000 0.000 1.280 
1.241 62136.967 0.000 0.000 0.000 1.291 
1.251 61148.642 0.000 0.000 0.000 1.301 
1.261 61554.364 0.000 0.000 0.000 1.312 
1.271 62304.194 0.000 0.000 0.000 1.322 
1.281 62729.666 0.000 0.000 0.000 1.333 
1.291 63957.469 0.000 0.000 0.000 1.343 
1.301 62290.592 0.000 0.000 0.000 1.353 
1.311 63730.171 0.000 0.000 0.000 1.364 
1.321 63296.978 0.000 0.000 0.000 1.374 
1.331 64759.316 0.000 0.000 0.000 1.385 
1.341 63649.242 0.000 0.000 0.000 1.395 
1.351 65092.420 0.000 0.000 0.000 1.405 
1.361 67181.957 0.000 0.000 0.000 1.416 
1.371 65391.291 0.000 0.000 0.000 1.426 
1.381 66797.928 0.000 0.000 0.000 1.437 
1.391 66650.384 0.000 0.000 0.000 1.447 
1.401 67112.762 0.000 0.000 0.000 1.457 
1.411 68275.764 0.000 0.000 0.000 1.468 
1.421 69633.958 0.000 0.000 0.000 1.478 
1.431 69246.636 0.000 0.000 0.000 1.489 
1.441 69566.570 0.000 0.000 0.000 1.499 
1.451 70479.393 0.000 0.000 0.000 1.510 
1.461 71000.026 0.000 0.000 0.000 1.520 
1.471 71488.442 0.000 0.000 0.000 1.530 
1.481 71626.304 0.000 0.000 0.000 1.541 
1.491 73509.936 0.000 0.000 0.000 1.551 
1.502 72980.348 0.000 0.000 0.000 1.562 
1.512 71864.540 0.000 0.000 0.000 1.572 
1.522 74753.494 0.000 0.000 0.000 1.582 
1.532 74145.900 0.000 0.000 0.000 1.593 
1.542 75097.377 0.000 0.000 0.000 1.603 
1.552 75922.332 0.000 0.000 0.000 1.614 
1.562 76992.088 0.000 0.000 0.000 1.624 
1.572 76066.300 0.000 0.000 0.000 1.634 
1.582 76590.068 0.000 0.000 0.000 1.645 
1.592 77121.141 0.000 0.000 0.000 1.655 
1.602 79050.559 0.000 0.000 0.000 1.666 
1.612 78892.445 0.000 0.000 0.000 1.676 
1.622 78053.374 0.000 0.000 0.000 1.686 
1.632 80029.162 0.000 0.000 0.000 1.697 
1.642 78770.169 0.000 0.000 0.000 1.707 
1.652 81512.355 0.000 0.000 0.000 1.718 
1.662 80588.635 0.000 0.000 0.000 1.728 
1.672 81070.611 0.000 0.000 0.000 1.739 
1.682 81502.893 0.000 0.000 0.000 1.749 
1.692 82112.940 0.000 0.000 0.000 1.759 
1.702 83427.037 0.000 0.000 0.000 1.770 
1.712 83598.503 0.000 0.000 0.000 1.780 
1.722 83388.481 0.000 0.000 0.000 1.791 
1.732 83694.654 0.000 0.000 0.000 1.801 
1.742 84102.496 0.000 0.000 0.000 1.811 
1.752 85636.566 0.000 0.000 0.000 1.822 
1.762 83672.650 0.000 0.000 0.000 1.832 
1.772 85663.307 0.000 0.000 0.000 1.843 
1.782 87700.770 0.000 0.000 0.000 1.853 
1.792 85968.022 0.000 0.000 0.000 1.863 
1.802 88032.646 0.000 0.000 0.000 1.874 
1.812 88085.285 0.000 0.000 0.000 1.884 
1.822 88312.650 0.000 0.000 0.000 1.895 
1.832 89567.282 0.000 0.000 0.000 1.905 
1.842 90223.801 0.000 0.000 0.000 1.916 
1.852 88768.528 0.000 0.000 0.000 1.926 
1.862 90863.257 0.000 0.000 0.000 1.936 
1.872 90097.907 0.000 0.000 0.000 1.947 
1.882 90470.136 0.000 0.000 0.000 1.957 
1.892 93308.432 0.000 0.000 0.000 1.968 
1.902 91791.913 0.000 0.000 0.000 1.978 
1.912 94075.254 0.000 0.000 0.000 1.988 
1.922 94559.315 0.000 0.000 0.000 1.999 
1.932 92524.248 0.000 0.000 0.000 2.009 
1.942 94739.369 0.000 0.000 0.000 2.020 
1.952 96705.326 0.000 0.000 0.000 2.030 
1.962 94214.683 0.000 0.000 0.000 2.040 
1.972 95984.778 0.000 0.000 0.000 2.051 
1.982 96748.229 0.000 0.000 0.000 2.061 
1.992 95700.770 0.000 0.000 0.000 2.072 
2.002 98342.183 0.000 0.000 0.000 2.082 
2.012 97410.513 0.000 0.000 0.000 2.092 
2.022 99059.239 0.000 0.000 0.000 2.103 
2.032 98604.384 0.000 0.000 0.000 2.113 
2.042 99430.665 0.000 0.000 0.000 2.124 
2.052 98795.682 0.000 0.000 0.000 2.134 
2.062 99757.339 0.000 0.000 0.000 2.145 
2.072 100475.704 0.000 0.000 0.000 2.155 
2.082 102080.807 0.000 0.000 0.000 2.165 
2.092 102918.247 0.000 0.000 0.000 2.176 
2.102 103892.541 0.000 0.000 0.000 2.186 
2.112 102566.760 0.000 0.000 0.000 2.197 
2.122 103957.713 0.000 0.000 0.000 2.207 
2.132 104228.049 0.000 0.000 0.000 2.217 
2.142 104539.941 0.000 0.000 0.000 2.228 
2.152 103616.927 0.000 0.000 0.000 2.238 
2.162 105083.586 0.000 0.000 0.000 2.249 
2.172 105382.543 0.000 0.000 0.000 2.259 
2.182 106522.718 0.000 0.000 0.000 2.269 
2.192 106016.367 0.000 0.000 0.000 2.280 
2.202 106887.386 0.000 0.000 0.000 2.290 
2.212 108586.791 0.000 0.000 0.000 2.301 
2.222 108702.769 0.000 0.000 0.000 2.311 
2.232 109452.313 0.000 0.000 0.000 2.322 
2.242 109662.962 0.000 0.000 0.000 2.332 
2.252 109870.325 0.000 0.000 0.000 2.342 
2.262 109630.668 0.000 0.000 0.000 2.353 
2.272 110418.195 0.000 0.000 0.000 2.363 
2.282 112350.375 0.000 0.000 0.000 2.374 
2.292 112041.756 0.000 0.000 0.000 2.384 
2.302 112554.469 0.000 0.000 0.000 2.394 
2.312 112209.510 0.000 0.000 0.000 2.405 
2.322 114324.381 0.000 0.000 0.000 2.415 
2.332 114278.320 0.000 0.000 0.000 2.426 
2.342 113399.410 0.000 0.000 0.000 2.436 
2.352 113597.665 0.000 0.000 0.000 2.446 
2.362 116415.949 0.000 0.000 0.000 2.457 
2.372 116011.640 0.000 0.000 0.000 2.467 
2.382 115637.842 0.000 0.000 0.000 2.478 
2.392 115557.160 0.000 0.000 0.000 2.488 
2.402 116425.645 0.000 0.000 0.000 2.498 
2.412 117512.082 0.000 0.000 0.000 2.509 
2.422 118012.800 0.000 0.000 0.000 2.519 
2.432 118240.653 0.000 0.000 0.000 2.530 
2.442 118546.011 0.000 0.000 0.000 2.540 
2.452 120721.512 0.000 0.000 0.000 2.551 
2.462 119839.153 0.000 0.000 0.000 2.561 
2.472 120927.983 0.000 0.000 0.000 2.571 
2.482 122514.400 0.000 0.000 0.000 2.582 
2.492 120140.625 0.000 0.000 0.000 2.592 
2.503 121995.519 0.000 0.000 0.000 2.603 
2.513 122621.416 0.000 0.000 0.000 2.613 
2.523 123019.405 0.000 0.000 0.000 2.623 
2.533 124846.113 0.000 0.000 0.000 2.634 
2.543 122318.798 0.000 0.000 0.000 2.644 
2.553 124221.823 0.000 0.000 0.000 2.655 
2.563 124817.127 0.000 0.000 0.000 2.665 
2.573 125228.765 0.000 0.000 0.000 2.675 
2.583 126536.068 0.000 0.000 0.000 2.686 
2.593 126770.756 0.000 0.000 0.000 2.696 
2.603 127401.856 0.000 0.000 0.000 2.707 
2.613 127509.331 0.000 0.000 0.000 2.717 
2.623 128389.411 0.000 0.000 0.000 2.728 
2.633 128100.354 0.000 0.000 0.000 2.738 
2.643 129190.203 0.000 0.000 0.000 2.748 
2.653 129262.200 0.000 0.000 0.000 2.759 
2.663 129370.544 0.000 0.000 0.000 2.769 
2.673 130069.523 0.000 0.000 0.000 2.780 
2.683 129752.544 0.000 0.000 0.000 2.790 
2.693 132788.767 0.000 0.000 0.000 2.800 
2.703 133140.230 0.000 0.000 0.000 2.811 
2.713 132571.264 0.000 0.000 0.000 2.821 
2.723 133098.317 0.000 0.000 0.000 2.832 
2.733 133336.512 0.000 0.000 0.000 2.842 
2.743 132546.979 0.000 0.000 0.000 2.852 
2.753 132870.761 0.000 0.000 0.000 2.863 
2.763 134421.839 0.000 0.000 0.000 2.873 
2.773 137021.404 0.000 0.000 0.000 2.884 
2.783 136077.232 0.000 0.000 0.000 2.894 
2.793 136877.697 0.000 0.000 0.000 2.905 
2.803 136331.531 0.000 0.000 0.000 2.915 
2.813 136014.905 0.000 0.000 0.000 2.925 
2.823 137971.693 0.000 0.000 0.000 2.936 
2.833 137538.416 0.000 0.000 0.000 2.946 
2.843 137192.134 0.000 0.000 0.000 2.957 
2.853 139480.877 0.000 0.000 0.000 2.967 
2.863 139765.954 0.000 0.000 0.000 2.977 
2.873 139325.160 0.000 0.000 0.000 2.988 
2.883 141552.371 0.000 0.000 0.000 2.998 
2.893 141933.584 0.000 0.000 0.000 3.009 
2.903 141526.485 0.000 0.000 0.000 3.019 
2.913 141115.418 0.000 0.000 0.000 3.029 
2.923 142682.118 0.000 0.000 0.000 3.040 
2.933 142978.550 0.000 0.000 0.000 3.050 
2.943 143466.752 0.000 0.000 0.000 3.061 
2.953 144126.251 0.000 0.000 0.000 3.071 
2.963 144596.620 0.000 0.000 0.000 3.081 
2.973 145147.165 0.000 0.000 0.000 3.092 
2.983 144987.917 0.000 0.000 0.000 3.102 
2.993 145722.704 0.000 0.000 0.000 3.113 
3.003 147931.294 0.000 0.000 0.000 3.123 
3.013 145163.618 0.000 0.000 0.000 3.134 
3.023 146274.640 0.000 0.000 0.000 3.144 
3.033 143501.539 0.000 0.000 0.000 3.154 
3.043 144503.690 0.000 0.000 0.000 3.165 
3.053 145290.973 0.000 0.000 0.000 3.175 
3.063 145530.358 0.000 0.000 0.000 3.186 
3.073 145136.265 0.000 0.000 0.000 3.196 
3.083 144644.573 0.000 0.000 0.000 3.206 
3.093 144656.072 0.000 0.000 0.000 3.217 
3.103 145166.490 0.000 0.000 0.000 3.227 
3.113 144947.145 0.000 0.000 0.000 3.238 
3.123 144318.536 0.000 0.000 0.000 3.248 
3.133 144737.069 0.000 0.000 0.000 3.258 
3.143 143644.068 0.000 0.000 0.000 3.269 
3.153 143154.516 0.000 0.000 0.000 3.279 
3.163 144179.133 0.000 0.000 0.000 3.290 
3.173 143625.528 0.000 0.000 0.000 3.300 
3.183 142598.526 0.000 0.000 0.000 3.311 
3.193 142683.306 0.000 0.000 0.000 3.321 
3.203 143286.449 0.000 0.000 0.000 3.331 
3.213 142832.037 0.000 0.000 0.000 3.342 
3.223 142673.289 0.000 0.000 0.000 3.352 
3.233 142657.955 0.000 0.000 0.000 3.363 
3.243 143020.711 0.000 0.000 0.000 3.373 
3.253 142931.109 0.000 0.000 0.000 3.383 
3.263 143285.496 0.000 0.000 0.000 3.394 
3.273 142625.860 0.000 0.000 0.000 3.404 
3.283 143281.698 0.000 0.000 0.000 3.415 
3.293 142530.295 0.000 0.000 0.000 3.425 
3.303 142128.296 0.000 0.000 0.000 3.435 
3.313 141673.981 0.000 0.000 0.000 3.446 
3.323 141983.312 0.000 0.000 0.000 3.456 
3.333 140948.040 0.000 0.000 0.000 3.467 
3.343 143236.897 0.000 0.000 0.000 3.477 
3.353 142057.409 0.000 0.000 0.000 3.487 
3.363 142801.481 0.000 0.000 0.000 3.498 
3.373 142423.039 0.000 0.000 0.000 3.508 
3.383 142200.622 0.000 0.000 0.000 3.519 
3.393 141475.066 0.000 0.000 0.000 3.529 
3.403 143314.607 0.000 0.000 0.000 3.540 
3.413 141121.393 0.000 0.000 0.000 3.550 
3.423 142074.542 0.000 0.000 0.000 3.560 
3.433 141223.673 0.000 0.000 0.000 3.571 
3.443 142979.108 0.000 0.000 0.000 3.581 
3.453 141590.620 0.000 0.000 0.000 3.592 
3.463 143435.760 0.000 0.000 0.000 3.602 
3.473 142345.498 0.000 0.000 0.000 3.612 
3.483 143493.186 0.000 0.000 0.000 3.623 
3.493 142768.628 0.000 0.000 0.000 3.633 
3.504 141811.728 0.000 0.000 0.000 3.644 
3.514 142876.061 0.000 0.000 0.000 3.654 
3.524 142502.165 0.000 0.000 0.000 3.664 
3.534 141843.900 0.000 0.000 0.000 3.675 
3.544 141754.247 0.000 0.000 0.000 3.685 
3.554 142957.218 0.000 0.000 0.000 3.696 
3.564 142045.542 0.000 0.000 0.000 3.706 
3.574 143104.973 0.000 0.000 0.000 3.717 
3.584 142629.259 0.000 0.000 0.000 3.727 
3.594 141863.969 0.000 0.000 0.000 3.737 
3.604 142865.026 0.000 0.000 0.000 3.748 
3.614 143201.706 0.000 0.000 0.000 3.758 
3.624 142650.347 0.000 0.000 0.000 3.769 
3.634 142455.832 0.000 0.000 0.000 3.779 
3.644 142671.553 0.000 0.000 0.000 3.789 
3.654 142903.275 0.000 0.000 0.000 3.800 
3.664 142481.955 0.000 0.000 0.000 3.810 
3.674 142439.886 0.000 0.000 0.000 3.821 
3.684 141466.049 0.000 0.000 0.000 3.831 
3.694 141720.877 0.000 0.000 0.000 3.841 
3.704 143856.633 0.000 0.000 0.000 3.852 
3.714 143878.019 0.000 0.000 0.000 3.862 
3.724 142205.705 0.000 0.000 0.000 3.873 
3.734 143077.775 0.000 0.000 0.000 3.883 
3.744 143299.499 0.000 0.000 0.000 3.893 
3.754 142834.145 0.000 0.000 0.000 3.904 
3.764 142368.086 0.000 0.000 0.000 3.914 
3.774 141342.517 0.000 0.000 0.000 3.925 
3.784 143241.566 0.000 0.000 0.000 3.935 
3.794 142469.865 0.000 0.000 0.000 3.946 
3.804 142985.880 0.000 0.000 0.000 3.956 
3.814 143092.981 0.000 0.000 0.000 3.966 
3.824 143174.681 0.000 0.000 0.000 3.977 
3.834 143214.403 0.000 0.000 0.000 3.987 
3.844 143775.481 0.000 0.000 0.000 3.998 
3.854 142720.406 0.000 0.000 0.000 4.008 
3.864 141223.827 0.000 0.000 0.000 4.018 
3.874 143024.813 0.000 0.000 0.000 4.029 
3.884 141786.673 0.000 0.000 0.000 4.039 
3.894 141669.764 0.000 0.000 0.000 4.050 
3.904 143720.631 0.000 0.000 0.000 4.060 
3.914 143100.500 0.000 0.000 0.000 4.070 
3.924 143066.881 0.000 0.000 0.000 4.081 
3.934 142396.478 0.000 0.000 0.000 4.091 
3.944 142428.138 0.000 0.000 0.000 4.102 
3.954 143023.682 0.000 0.000 0.000 4.112 
3.964 142976.383 0.000 0.000 0.000 4.123 
3.974 141332.750 0.000 0.000 0.000 4.133 
3.984 142015.605 0.000 0.000 0.000 4.143 
3.994 141617.923 0.000 0.000 0.000 4.154 
4.004 142516.300 0.000 0.000 0.000 4.164 
4.014 142536.477 0.000 0.000 0.000 4.175 
4.024 142262.338 0.000 0.000 0.000 4.185 
4.034 142727.133 0.000 0.000 0.000 4.195 
4.044 142753.772 0.000 0.000 0.000 4.206 
4.054 143978.112 0.000 0.000 0.000 4.216 
4.064 142179.929 0.000 0.000 0.000 4.227 
4.074 142838.511 0.000 0.000 0.000 4.237 
4.084 142989.395 0.000 0.000 0.000 4.247 
4.094 141163.186 0.000 0.000 0.000 4.258 
4.104 142900.081 0.000 0.000 0.000 4.268 
4.114 143424.048 0.000 0.000 0.000 4.279 
4.124 142824.886 0.000 0.000 0.000 4.289 
4.134 141379.494 0.000 0.000 0.000 4.299 
4.144 143646.212 0.000 0.000 0.000 4.310 
4.154 142345.759 0.000 0.000 0.000 4.320 
4.164 142026.071 0.000 0.000 0.000 4.331 
4.174 142432.347 0.000 0.000 0.000 4.341 
4.184 141947.857 0.000 0.000 0.000 4.352 
4.194 140680.491 0.000 0.000 0.000 4.362 
4.204 144152.435 0.000 0.000 0.000 4.372 
4.214 142545.307 0.000 0.000 0.000 4.383 
4.224 142940.107 0.000 0.000 0.000 4.393 
4.234 141927.974 0.000 0.000 0.000 4.404 
4.244 142477.009 0.000 0.000 0.000 4.414 
4.254 142617.583 0.000 0.000 0.000 4.424 
4.264 141207.062 0.000 0.000 0.000 4.435 
4.274 142931.828 0.000 0.000 0.000 4.445 
4.284 143564.705 0.000 0.000 0.000 4.456 
4.294 142847.398 0.000 0.000 0.000 4.466 
4.304 142885.038 0.000 0.000 0.000 4.476 
4.314 142166.090 0.000 0.000 0.000 4.487 
4.324 142640.268 0.000 0.000 0.000 4.497 
4.334 144162.237 0.000 0.000 0.000 4.508 
4.344 142346.749 0.000 0.000 0.000 4.518 
4.354 143082.199 0.000 0.000 0.000 4.529 
4.364 143064.651 0.000 0.000 0.000 4.539 
4.374 140136.279 0.000 0.000 0.000 4.549 
4.384 142525.605 0.000 0.000 0.000 4.560 
4.394 142181.940 0.000 0.000 0.000 4.570 
4.404 142119.881 0.000 0.000 0.000 4.581 
4.414 143810.207 0.000 0.000 0.000 4.591 
4.424 141495.668 0.000 0.000 0.000 4.601 
4.434 142227.195 0.000 0.000 0.000 4.612 
4.444 143719.865 0.000 0.000 0.000 4.622 
4.454 143275.405 0.000 0.000 0.000 4.633 
4.464 142336.158 0.000 0.000 0.000 4.643 
4.474 142466.713 0.000 0.000 0.000 4.653 
4.484 143539.813 0.000 0.000 0.000 4.664 
4.494 142866.777 0.000 0.000 0.000 4.674 
4.505 142635.452 0.000 0.000 0.000 4.685 
4.515 142070.572 0.000 0.000 0.000 4.695 
4.525 142562.691 0.000 0.000 0.000 4.706 
4.535 141732.288 0.000 0.000 0.000 4.716 
4.545 142954.361 0.000 0.000 0.000 4.726 
4.555 142502.808 0.000 0.000 0.000 4.737 
4.565 144155.871 0.000 0.000 0.000 4.747 
4.575 140730.157 0.000 0.000 0.000 4.758 
4.585 142756.875 0.000 0.000 0.000 4.768 
4.595 142849.083 0.000 0.000 0.000 4.778 
4.605 141664.179 0.000 0.000 0.000 4.789 
