"Test Type","Manual"
"Method Name:","C:\INSTRON\user\template\Sp15_245Lsect001_group-01_pps_bulk_tensiletest.mtM"
"Name:","4FtPerMin"
"Operator ID:","Jaques"
"Company:","BSU"
"Lab name:",""
"Test date:","1/17/22"
"Temperature:",""
"Humidity:",""
"Note 1:",""
"Note 2:",""
"Note 3:",""
"Geometry:","Circular"
"Specimen",0
"Specimen name:",""
"Width:",6.350000,"mm"
"Thickness:",1.524000,"mm"
"Length:",12.000000,"mm"
"Diameter:",5.000000,"um"
"Inner diameter:",0.500000,"mm"
"Outer diameter:",1.000000,"mm"
"Wall thickness:",0.500000,"mm"
"Area:",19.634954,"um*um"
"Linear density:",1.000000,"den"
"Sled weight:",9.806650,"N"
"Loading span:",0.000000,"mm"
"Support span:",1.000000,"mm"
"Span ratio:","2"
"Fixture type:","3-point"
"Comment:",""
"Included"
"Time sec","Stress Pa","Cycle Count","Total Cycle Count","Repetitions Count","Strain [Exten.] %"
0.000 -38.902 0.000 0.000 0.000 0.000 
0.010 56.786 0.000 0.000 0.000 0.006 
0.020 38.398 0.000 0.000 0.000 0.012 
0.030 88.426 0.000 0.000 0.000 0.018 
0.040 59.164 0.000 0.000 0.000 0.024 
0.050 61.417 0.000 0.000 0.000 0.030 
0.060 118.898 0.000 0.000 0.000 0.036 
0.070 136.100 0.000 0.000 0.000 0.042 
0.080 199.663 0.000 0.000 0.000 0.048 
0.090 223.823 0.000 0.000 0.000 0.054 
0.100 236.433 0.000 0.000 0.000 0.060 
0.110 268.135 0.000 0.000 0.000 0.066 
0.120 259.173 0.000 0.000 0.000 0.072 
0.130 265.723 0.000 0.000 0.000 0.078 
0.140 320.421 0.000 0.000 0.000 0.084 
0.150 395.219 0.000 0.000 0.000 0.090 
0.160 381.494 0.000 0.000 0.000 0.096 
0.170 351.484 0.000 0.000 0.000 0.102 
0.180 394.807 0.000 0.000 0.000 0.108 
0.190 354.196 0.000 0.000 0.000 0.114 
0.200 392.039 0.000 0.000 0.000 0.120 
0.210 546.777 0.000 0.000 0.000 0.126 
0.220 472.198 0.000 0.000 0.000 0.132 
0.230 503.629 0.000 0.000 0.000 0.138 
0.240 594.406 0.000 0.000 0.000 0.144 
0.250 506.140 0.000 0.000 0.000 0.150 
0.260 575.240 0.000 0.000 0.000 0.156 
0.270 610.115 0.000 0.000 0.000 0.162 
0.280 647.487 0.000 0.000 0.000 0.168 
0.290 640.327 0.000 0.000 0.000 0.174 
0.300 623.448 0.000 0.000 0.000 0.180 
0.310 704.704 0.000 0.000 0.000 0.186 
0.320 731.690 0.000 0.000 0.000 0.192 
0.330 775.944 0.000 0.000 0.000 0.198 
0.340 853.079 0.000 0.000 0.000 0.204 
0.350 760.193 0.000 0.000 0.000 0.210 
0.360 733.151 0.000 0.000 0.000 0.216 
0.370 770.989 0.000 0.000 0.000 0.222 
0.380 918.919 0.000 0.000 0.000 0.228 
0.390 902.057 0.000 0.000 0.000 0.234 
0.400 840.356 0.000 0.000 0.000 0.240 
0.410 905.530 0.000 0.000 0.000 0.246 
0.420 931.272 0.000 0.000 0.000 0.252 
0.430 1029.731 0.000 0.000 0.000 0.258 
0.440 1011.409 0.000 0.000 0.000 0.264 
0.450 1005.990 0.000 0.000 0.000 0.270 
0.460 1045.598 0.000 0.000 0.000 0.276 
0.470 1030.455 0.000 0.000 0.000 0.282 
0.480 1106.956 0.000 0.000 0.000 0.288 
0.490 1093.645 0.000 0.000 0.000 0.294 
0.501 1162.935 0.000 0.000 0.000 0.300 
0.511 1140.545 0.000 0.000 0.000 0.306 
0.521 1178.601 0.000 0.000 0.000 0.312 
0.531 1186.140 0.000 0.000 0.000 0.318 
0.541 1210.438 0.000 0.000 0.000 0.324 
0.551 1237.857 0.000 0.000 0.000 0.330 
0.561 1237.510 0.000 0.000 0.000 0.336 
0.571 1248.811 0.000 0.000 0.000 0.342 
0.581 1320.075 0.000 0.000 0.000 0.348 
0.591 1291.066 0.000 0.000 0.000 0.354 
0.601 1361.800 0.000 0.000 0.000 0.360 
0.611 1334.739 0.000 0.000 0.000 0.366 
0.621 1319.019 0.000 0.000 0.000 0.372 
0.631 1411.210 0.000 0.000 0.000 0.378 
0.641 1413.726 0.000 0.000 0.000 0.384 
0.651 1504.503 0.000 0.000 0.000 0.390 
0.661 1499.961 0.000 0.000 0.000 0.396 
0.671 1513.016 0.000 0.000 0.000 0.402 
0.681 1529.369 0.000 0.000 0.000 0.408 
0.691 1508.214 0.000 0.000 0.000 0.414 
0.701 1594.809 0.000 0.000 0.000 0.420 
0.711 1610.655 0.000 0.000 0.000 0.426 
0.721 1673.858 0.000 0.000 0.000 0.432 
0.731 1643.724 0.000 0.000 0.000 0.438 
0.741 1719.665 0.000 0.000 0.000 0.444 
0.751 1680.661 0.000 0.000 0.000 0.450 
0.761 1744.743 0.000 0.000 0.000 0.456 
0.771 1770.962 0.000 0.000 0.000 0.462 
0.781 1782.465 0.000 0.000 0.000 0.468 
0.791 1785.420 0.000 0.000 0.000 0.474 
0.801 1894.949 0.000 0.000 0.000 0.480 
0.811 1845.596 0.000 0.000 0.000 0.486 
0.821 1811.788 0.000 0.000 0.000 0.492 
0.831 1874.611 0.000 0.000 0.000 0.498 
0.841 1897.376 0.000 0.000 0.000 0.505 
0.851 1920.983 0.000 0.000 0.000 0.511 
0.861 1891.179 0.000 0.000 0.000 0.517 
0.871 2011.033 0.000 0.000 0.000 0.523 
0.881 2014.236 0.000 0.000 0.000 0.529 
0.891 2023.806 0.000 0.000 0.000 0.535 
0.901 2066.752 0.000 0.000 0.000 0.541 
0.911 2036.709 0.000 0.000 0.000 0.547 
0.921 2102.804 0.000 0.000 0.000 0.553 
0.931 2098.304 0.000 0.000 0.000 0.559 
0.941 2127.277 0.000 0.000 0.000 0.565 
0.951 2162.700 0.000 0.000 0.000 0.571 
0.961 2198.304 0.000 0.000 0.000 0.577 
0.971 2168.854 0.000 0.000 0.000 0.583 
0.981 2247.820 0.000 0.000 0.000 0.589 
0.991 2232.920 0.000 0.000 0.000 0.595 
1.001 2253.543 0.000 0.000 0.000 0.601 
1.011 2283.610 0.000 0.000 0.000 0.607 
1.021 2341.905 0.000 0.000 0.000 0.613 
1.031 2339.849 0.000 0.000 0.000 0.619 
1.041 2298.958 0.000 0.000 0.000 0.625 
1.051 2380.794 0.000 0.000 0.000 0.631 
1.061 2429.142 0.000 0.000 0.000 0.637 
1.071 2429.348 0.000 0.000 0.000 0.643 
1.081 2483.439 0.000 0.000 0.000 0.649 
1.091 2491.907 0.000 0.000 0.000 0.655 
1.101 2494.495 0.000 0.000 0.000 0.661 
1.111 2493.327 0.000 0.000 0.000 0.667 
1.121 2512.511 0.000 0.000 0.000 0.673 
1.131 2564.409 0.000 0.000 0.000 0.679 
1.141 2571.958 0.000 0.000 0.000 0.685 
1.151 2621.648 0.000 0.000 0.000 0.691 
1.161 2645.488 0.000 0.000 0.000 0.697 
1.171 2608.797 0.000 0.000 0.000 0.703 
1.181 2646.846 0.000 0.000 0.000 0.709 
1.191 2732.570 0.000 0.000 0.000 0.715 
1.201 2783.393 0.000 0.000 0.000 0.721 
1.211 2785.291 0.000 0.000 0.000 0.727 
1.221 2806.634 0.000 0.000 0.000 0.733 
1.231 2773.743 0.000 0.000 0.000 0.739 
1.241 2788.317 0.000 0.000 0.000 0.745 
1.251 2805.974 0.000 0.000 0.000 0.751 
1.261 2824.031 0.000 0.000 0.000 0.757 
1.271 2859.580 0.000 0.000 0.000 0.763 
1.281 2983.861 0.000 0.000 0.000 0.769 
1.291 2917.400 0.000 0.000 0.000 0.775 
1.301 2969.763 0.000 0.000 0.000 0.781 
1.311 2973.248 0.000 0.000 0.000 0.787 
1.321 3033.751 0.000 0.000 0.000 0.793 
1.331 2999.104 0.000 0.000 0.000 0.799 
1.341 3051.298 0.000 0.000 0.000 0.805 
1.351 3071.203 0.000 0.000 0.000 0.811 
1.361 3109.656 0.000 0.000 0.000 0.817 
1.371 3086.455 0.000 0.000 0.000 0.823 
1.381 3119.627 0.000 0.000 0.000 0.829 
1.391 3158.697 0.000 0.000 0.000 0.835 
1.401 3184.071 0.000 0.000 0.000 0.841 
1.411 3212.126 0.000 0.000 0.000 0.847 
1.421 3194.519 0.000 0.000 0.000 0.853 
1.431 3280.878 0.000 0.000 0.000 0.859 
1.441 3240.459 0.000 0.000 0.000 0.865 
1.451 3335.387 0.000 0.000 0.000 0.871 
1.461 3327.550 0.000 0.000 0.000 0.877 
1.471 3349.157 0.000 0.000 0.000 0.883 
1.481 3399.264 0.000 0.000 0.000 0.889 
1.491 3366.327 0.000 0.000 0.000 0.895 
1.502 3409.529 0.000 0.000 0.000 0.901 
1.512 3435.160 0.000 0.000 0.000 0.907 
1.522 3424.031 0.000 0.000 0.000 0.913 
1.532 3463.597 0.000 0.000 0.000 0.919 
1.542 3528.613 0.000 0.000 0.000 0.925 
1.552 3495.019 0.000 0.000 0.000 0.931 
1.562 3545.199 0.000 0.000 0.000 0.937 
1.572 3582.722 0.000 0.000 0.000 0.943 
1.582 3560.864 0.000 0.000 0.000 0.949 
1.592 3653.433 0.000 0.000 0.000 0.955 
1.602 3617.633 0.000 0.000 0.000 0.961 
1.612 3688.289 0.000 0.000 0.000 0.967 
1.622 3719.147 0.000 0.000 0.000 0.973 
1.632 3692.261 0.000 0.000 0.000 0.979 
1.642 3714.854 0.000 0.000 0.000 0.985 
1.652 3711.357 0.000 0.000 0.000 0.991 
1.662 3741.467 0.000 0.000 0.000 0.997 
1.672 3810.715 0.000 0.000 0.000 1.003 
1.682 3781.764 0.000 0.000 0.000 1.009 
1.692 3835.302 0.000 0.000 0.000 1.015 
1.702 3856.464 0.000 0.000 0.000 1.021 
1.712 3868.961 0.000 0.000 0.000 1.027 
1.722 3970.084 0.000 0.000 0.000 1.033 
1.732 3954.063 0.000 0.000 0.000 1.039 
1.742 3909.830 0.000 0.000 0.000 1.045 
1.752 3955.158 0.000 0.000 0.000 1.051 
1.762 4009.327 0.000 0.000 0.000 1.057 
1.772 4033.997 0.000 0.000 0.000 1.063 
1.782 4031.301 0.000 0.000 0.000 1.069 
1.792 4075.045 0.000 0.000 0.000 1.075 
1.802 4136.452 0.000 0.000 0.000 1.081 
1.812 4094.972 0.000 0.000 0.000 1.087 
1.822 4156.165 0.000 0.000 0.000 1.093 
1.832 4141.476 0.000 0.000 0.000 1.099 
1.842 4201.946 0.000 0.000 0.000 1.105 
1.852 4217.414 0.000 0.000 0.000 1.111 
1.862 4202.286 0.000 0.000 0.000 1.117 
1.872 4296.850 0.000 0.000 0.000 1.123 
1.882 4275.102 0.000 0.000 0.000 1.129 
1.892 4286.391 0.000 0.000 0.000 1.135 
1.902 4292.687 0.000 0.000 0.000 1.141 
1.912 4343.127 0.000 0.000 0.000 1.147 
1.922 4333.791 0.000 0.000 0.000 1.153 
1.932 4414.315 0.000 0.000 0.000 1.159 
1.942 4429.848 0.000 0.000 0.000 1.165 
1.952 4462.402 0.000 0.000 0.000 1.171 
1.962 4464.650 0.000 0.000 0.000 1.177 
1.972 4501.799 0.000 0.000 0.000 1.183 
1.982 4531.912 0.000 0.000 0.000 1.189 
1.992 4568.453 0.000 0.000 0.000 1.195 
2.002 4507.915 0.000 0.000 0.000 1.201 
2.012 4582.454 0.000 0.000 0.000 1.207 
2.022 4600.168 0.000 0.000 0.000 1.213 
2.032 4630.358 0.000 0.000 0.000 1.219 
2.042 4630.478 0.000 0.000 0.000 1.225 
2.052 4699.307 0.000 0.000 0.000 1.231 
2.062 4729.361 0.000 0.000 0.000 1.237 
2.072 4673.374 0.000 0.000 0.000 1.243 
2.082 4707.598 0.000 0.000 0.000 1.249 
2.092 4772.667 0.000 0.000 0.000 1.255 
2.102 4751.373 0.000 0.000 0.000 1.261 
2.112 4805.098 0.000 0.000 0.000 1.267 
2.122 4837.139 0.000 0.000 0.000 1.273 
2.132 4841.869 0.000 0.000 0.000 1.279 
2.142 4845.274 0.000 0.000 0.000 1.285 
2.152 4886.364 0.000 0.000 0.000 1.291 
2.162 4926.391 0.000 0.000 0.000 1.297 
2.172 4934.768 0.000 0.000 0.000 1.303 
2.182 4931.719 0.000 0.000 0.000 1.309 
2.192 4914.524 0.000 0.000 0.000 1.315 
2.202 5041.292 0.000 0.000 0.000 1.321 
2.212 4974.229 0.000 0.000 0.000 1.327 
2.222 5062.266 0.000 0.000 0.000 1.333 
2.232 5092.925 0.000 0.000 0.000 1.339 
2.242 5056.007 0.000 0.000 0.000 1.345 
2.252 5192.281 0.000 0.000 0.000 1.351 
2.262 5105.934 0.000 0.000 0.000 1.357 
2.272 5149.930 0.000 0.000 0.000 1.363 
2.282 5208.407 0.000 0.000 0.000 1.369 
2.292 5174.051 0.000 0.000 0.000 1.375 
2.302 5247.340 0.000 0.000 0.000 1.381 
2.312 5274.943 0.000 0.000 0.000 1.387 
2.322 5266.937 0.000 0.000 0.000 1.393 
2.332 5274.066 0.000 0.000 0.000 1.399 
2.342 5295.598 0.000 0.000 0.000 1.405 
2.352 5301.335 0.000 0.000 0.000 1.411 
2.362 5368.701 0.000 0.000 0.000 1.417 
2.372 5406.038 0.000 0.000 0.000 1.423 
2.382 5405.657 0.000 0.000 0.000 1.429 
2.392 5429.453 0.000 0.000 0.000 1.435 
2.402 5460.275 0.000 0.000 0.000 1.441 
2.412 5488.535 0.000 0.000 0.000 1.447 
2.422 5520.564 0.000 0.000 0.000 1.453 
2.432 5525.710 0.000 0.000 0.000 1.459 
2.442 5561.552 0.000 0.000 0.000 1.465 
2.452 5611.275 0.000 0.000 0.000 1.471 
2.462 5639.070 0.000 0.000 0.000 1.477 
2.472 5650.508 0.000 0.000 0.000 1.483 
2.482 5687.107 0.000 0.000 0.000 1.489 
2.492 5653.183 0.000 0.000 0.000 1.495 
2.503 5673.399 0.000 0.000 0.000 1.502 
2.513 5752.208 0.000 0.000 0.000 1.508 
2.523 5770.474 0.000 0.000 0.000 1.514 
2.533 5682.701 0.000 0.000 0.000 1.520 
2.543 5838.641 0.000 0.000 0.000 1.526 
2.553 5812.978 0.000 0.000 0.000 1.532 
2.563 5863.357 0.000 0.000 0.000 1.538 
2.573 5911.743 0.000 0.000 0.000 1.544 
2.583 5804.306 0.000 0.000 0.000 1.550 
2.593 5944.574 0.000 0.000 0.000 1.556 
2.603 5924.901 0.000 0.000 0.000 1.562 
2.613 5937.149 0.000 0.000 0.000 1.568 
2.623 5938.161 0.000 0.000 0.000 1.574 
2.633 6020.922 0.000 0.000 0.000 1.580 
2.643 6022.048 0.000 0.000 0.000 1.586 
2.653 6019.975 0.000 0.000 0.000 1.592 
2.663 6068.722 0.000 0.000 0.000 1.598 
2.673 6101.404 0.000 0.000 0.000 1.604 
2.683 6066.595 0.000 0.000 0.000 1.610 
2.693 6113.256 0.000 0.000 0.000 1.616 
2.703 6171.803 0.000 0.000 0.000 1.622 
2.713 6169.518 0.000 0.000 0.000 1.628 
2.723 6149.618 0.000 0.000 0.000 1.634 
2.733 6189.624 0.000 0.000 0.000 1.640 
2.743 6196.080 0.000 0.000 0.000 1.646 
2.753 6242.893 0.000 0.000 0.000 1.652 
2.763 6269.193 0.000 0.000 0.000 1.658 
2.773 6317.493 0.000 0.000 0.000 1.664 
2.783 6343.158 0.000 0.000 0.000 1.670 
2.793 6328.848 0.000 0.000 0.000 1.676 
2.803 6412.978 0.000 0.000 0.000 1.682 
2.813 6399.879 0.000 0.000 0.000 1.688 
2.823 6408.187 0.000 0.000 0.000 1.694 
2.833 6492.256 0.000 0.000 0.000 1.700 
2.843 6466.726 0.000 0.000 0.000 1.706 
2.853 6444.423 0.000 0.000 0.000 1.712 
2.863 6503.462 0.000 0.000 0.000 1.718 
2.873 6471.615 0.000 0.000 0.000 1.724 
2.883 6545.836 0.000 0.000 0.000 1.730 
2.893 6534.658 0.000 0.000 0.000 1.736 
2.903 6566.013 0.000 0.000 0.000 1.742 
2.913 6612.073 0.000 0.000 0.000 1.748 
2.923 6678.776 0.000 0.000 0.000 1.754 
2.933 6629.770 0.000 0.000 0.000 1.760 
2.943 6707.292 0.000 0.000 0.000 1.766 
2.953 6706.657 0.000 0.000 0.000 1.772 
2.963 6721.562 0.000 0.000 0.000 1.778 
2.973 6726.140 0.000 0.000 0.000 1.784 
2.983 6856.104 0.000 0.000 0.000 1.790 
2.993 6741.667 0.000 0.000 0.000 1.796 
3.003 6805.641 0.000 0.000 0.000 1.802 
3.013 6803.606 0.000 0.000 0.000 1.808 
3.023 6759.923 0.000 0.000 0.000 1.814 
3.033 6828.681 0.000 0.000 0.000 1.820 
3.043 6714.153 0.000 0.000 0.000 1.826 
3.053 6805.850 0.000 0.000 0.000 1.832 
3.063 6791.498 0.000 0.000 0.000 1.838 
3.073 6748.726 0.000 0.000 0.000 1.844 
3.083 6719.878 0.000 0.000 0.000 1.850 
3.093 6823.487 0.000 0.000 0.000 1.856 
3.103 6787.027 0.000 0.000 0.000 1.862 
3.113 6733.394 0.000 0.000 0.000 1.868 
3.123 6687.704 0.000 0.000 0.000 1.874 
3.133 6753.930 0.000 0.000 0.000 1.880 
3.143 6744.786 0.000 0.000 0.000 1.886 
3.153 6766.719 0.000 0.000 0.000 1.892 
3.163 6690.518 0.000 0.000 0.000 1.898 
3.173 6687.121 0.000 0.000 0.000 1.904 
3.183 6686.144 0.000 0.000 0.000 1.910 
3.193 6640.735 0.000 0.000 0.000 1.916 
3.203 6722.888 0.000 0.000 0.000 1.922 
3.213 6652.734 0.000 0.000 0.000 1.928 
3.223 6654.245 0.000 0.000 0.000 1.934 
3.233 6666.054 0.000 0.000 0.000 1.940 
3.243 6642.226 0.000 0.000 0.000 1.946 
3.253 6594.131 0.000 0.000 0.000 1.952 
3.263 6667.262 0.000 0.000 0.000 1.958 
3.273 6683.608 0.000 0.000 0.000 1.964 
3.283 6610.187 0.000 0.000 0.000 1.970 
3.293 6658.610 0.000 0.000 0.000 1.976 
3.303 6619.135 0.000 0.000 0.000 1.982 
3.313 6670.014 0.000 0.000 0.000 1.988 
3.323 6639.188 0.000 0.000 0.000 1.994 
3.333 6653.763 0.000 0.000 0.000 2.000 
3.343 6627.628 0.000 0.000 0.000 2.006 
3.353 6675.950 0.000 0.000 0.000 2.012 
3.363 6661.318 0.000 0.000 0.000 2.018 
3.373 6601.149 0.000 0.000 0.000 2.024 
3.383 6696.494 0.000 0.000 0.000 2.030 
3.393 6729.531 0.000 0.000 0.000 2.036 
3.403 6616.611 0.000 0.000 0.000 2.042 
3.413 6651.570 0.000 0.000 0.000 2.048 
3.423 6651.590 0.000 0.000 0.000 2.054 
3.433 6619.429 0.000 0.000 0.000 2.060 
3.443 6690.998 0.000 0.000 0.000 2.066 
3.453 6630.225 0.000 0.000 0.000 2.072 
3.463 6698.756 0.000 0.000 0.000 2.078 
3.473 6669.780 0.000 0.000 0.000 2.084 
3.483 6650.233 0.000 0.000 0.000 2.090 
3.493 6648.154 0.000 0.000 0.000 2.096 
3.504 6718.025 0.000 0.000 0.000 2.102 
3.514 6614.018 0.000 0.000 0.000 2.108 
3.524 6670.753 0.000 0.000 0.000 2.114 
3.534 6658.001 0.000 0.000 0.000 2.120 
3.544 6702.965 0.000 0.000 0.000 2.126 
3.554 6696.205 0.000 0.000 0.000 2.132 
3.564 6625.641 0.000 0.000 0.000 2.138 
3.574 6701.847 0.000 0.000 0.000 2.144 
3.584 6654.695 0.000 0.000 0.000 2.150 
3.594 6661.524 0.000 0.000 0.000 2.156 
3.604 6711.972 0.000 0.000 0.000 2.162 
3.614 6677.087 0.000 0.000 0.000 2.168 
3.624 6620.644 0.000 0.000 0.000 2.174 
3.634 6626.076 0.000 0.000 0.000 2.180 
3.644 6674.571 0.000 0.000 0.000 2.186 
3.654 6694.537 0.000 0.000 0.000 2.192 
3.664 6630.960 0.000 0.000 0.000 2.198 
3.674 6633.991 0.000 0.000 0.000 2.204 
3.684 6722.150 0.000 0.000 0.000 2.210 
3.694 6651.629 0.000 0.000 0.000 2.216 
3.704 6687.889 0.000 0.000 0.000 2.222 
3.714 6672.238 0.000 0.000 0.000 2.228 
3.724 6669.519 0.000 0.000 0.000 2.234 
3.734 6744.831 0.000 0.000 0.000 2.240 
3.744 6662.102 0.000 0.000 0.000 2.246 
3.754 6720.939 0.000 0.000 0.000 2.252 
3.764 6696.796 0.000 0.000 0.000 2.258 
3.774 6666.480 0.000 0.000 0.000 2.264 
3.784 6691.479 0.000 0.000 0.000 2.270 
3.794 6715.528 0.000 0.000 0.000 2.276 
3.804 6675.019 0.000 0.000 0.000 2.282 
3.814 6706.779 0.000 0.000 0.000 2.288 
3.824 6688.794 0.000 0.000 0.000 2.294 
3.834 6666.220 0.000 0.000 0.000 2.300 
3.844 6680.642 0.000 0.000 0.000 2.306 
3.854 6707.782 0.000 0.000 0.000 2.312 
3.864 6681.860 0.000 0.000 0.000 2.318 
3.874 6721.950 0.000 0.000 0.000 2.324 
3.884 6660.971 0.000 0.000 0.000 2.330 
3.894 6718.339 0.000 0.000 0.000 2.336 
3.904 6699.503 0.000 0.000 0.000 2.342 
3.914 6729.996 0.000 0.000 0.000 2.348 
3.924 6650.052 0.000 0.000 0.000 2.354 
3.934 6717.162 0.000 0.000 0.000 2.360 
3.944 6680.984 0.000 0.000 0.000 2.366 
3.954 6723.532 0.000 0.000 0.000 2.372 
3.964 6675.091 0.000 0.000 0.000 2.378 
3.974 6758.365 0.000 0.000 0.000 2.384 
3.984 6752.515 0.000 0.000 0.000 2.390 
3.994 6672.166 0.000 0.000 0.000 2.396 
4.004 6689.976 0.000 0.000 0.000 2.402 
4.014 6741.076 0.000 0.000 0.000 2.408 
4.024 6707.703 0.000 0.000 0.000 2.414 
4.034 6721.329 0.000 0.000 0.000 2.420 
4.044 6677.400 0.000 0.000 0.000 2.426 
4.054 6658.924 0.000 0.000 0.000 2.432 
4.064 6730.469 0.000 0.000 0.000 2.438 
4.074 6689.083 0.000 0.000 0.000 2.444 
4.084 6739.040 0.000 0.000 0.000 2.450 
4.094 6715.070 0.000 0.000 0.000 2.456 
4.104 6705.164 0.000 0.000 0.000 2.462 
4.114 6737.545 0.000 0.000 0.000 2.468 
4.124 6692.616 0.000 0.000 0.000 2.474 
4.134 6658.109 0.000 0.000 0.000 2.480 
4.144 6676.237 0.000 0.000 0.000 2.486 
4.154 6722.818 0.000 0.000 0.000 2.492 
4.164 6688.238 0.000 0.000 0.000 2.498 
4.174 6680.255 0.000 0.000 0.000 2.505 
4.184 6735.545 0.000 0.000 0.000 2.511 
4.194 6643.690 0.000 0.000 0.000 2.517 
4.204 6735.077 0.000 0.000 0.000 2.523 
4.214 6754.518 0.000 0.000 0.000 2.529 
4.224 6706.326 0.000 0.000 0.000 2.535 
4.234 6745.610 0.000 0.000 0.000 2.541 
4.244 6731.917 0.000 0.000 0.000 2.547 
4.254 6704.056 0.000 0.000 0.000 2.553 
4.264 6726.398 0.000 0.000 0.000 2.559 
4.274 6664.572 0.000 0.000 0.000 2.565 
4.284 6717.994 0.000 0.000 0.000 2.571 
4.294 6683.646 0.000 0.000 0.000 2.577 
4.304 6732.026 0.000 0.000 0.000 2.583 
4.314 6705.836 0.000 0.000 0.000 2.589 
4.324 6708.232 0.000 0.000 0.000 2.595 
4.334 6705.077 0.000 0.000 0.000 2.601 
4.344 6676.865 0.000 0.000 0.000 2.607 
4.354 6703.735 0.000 0.000 0.000 2.613 
4.364 6735.555 0.000 0.000 0.000 2.619 
4.374 6669.308 0.000 0.000 0.000 2.625 
4.384 6698.066 0.000 0.000 0.000 2.631 
4.394 6735.179 0.000 0.000 0.000 2.637 
4.404 6662.109 0.000 0.000 0.000 2.643 
4.414 6699.885 0.000 0.000 0.000 2.649 
4.424 6742.405 0.000 0.000 0.000 2.655 
4.434 6781.263 0.000 0.000 0.000 2.661 
4.444 6713.943 0.000 0.000 0.000 2.667 
4.454 6693.445 0.000 0.000 0.000 2.673 
4.464 6753.906 0.000 0.000 0.000 2.679 
4.474 6713.135 0.000 0.000 0.000 2.685 
4.484 6767.525 0.000 0.000 0.000 2.691 
4.494 6733.333 0.000 0.000 0.000 2.697 
4.505 6705.799 0.000 0.000 0.000 2.703 
4.515 6661.014 0.000 0.000 0.000 2.709 
4.525 6661.890 0.000 0.000 0.000 2.715 
4.535 6682.310 0.000 0.000 0.000 2.721 
4.545 6779.301 0.000 0.000 0.000 2.727 
4.555 6750.294 0.000 0.000 0.000 2.733 
4.565 6724.986 0.000 0.000 0.000 2.739 
4.575 6694.032 0.000 0.000 0.000 2.745 
4.585 6732.503 0.000 0.000 0.000 2.751 
4.595 6759.312 0.000 0.000 0.000 2.757 
4.605 6730.313 0.000 0.000 0.000 2.763 
4.615 6722.316 0.000 0.000 0.000 2.769 
4.625 6699.443 0.000 0.000 0.000 2.775 
4.635 6703.412 0.000 0.000 0.000 2.781 
4.645 6711.705 0.000 0.000 0.000 2.787 
4.655 6661.323 0.000 0.000 0.000 2.793 
4.665 6732.332 0.000 0.000 0.000 2.799 
4.675 6777.358 0.000 0.000 0.000 2.805 
4.685 6704.470 0.000 0.000 0.000 2.811 
4.695 6705.061 0.000 0.000 0.000 2.817 
4.705 6704.092 0.000 0.000 0.000 2.823 
4.715 6724.543 0.000 0.000 0.000 2.829 
4.725 6684.423 0.000 0.000 0.000 2.835 
4.735 6736.069 0.000 0.000 0.000 2.841 
4.745 6785.479 0.000 0.000 0.000 2.847 
4.755 6745.679 0.000 0.000 0.000 2.853 
4.765 6800.556 0.000 0.000 0.000 2.859 
4.775 6796.482 0.000 0.000 0.000 2.865 
4.785 6737.107 0.000 0.000 0.000 2.871 
